Heath monochromator readings:
Time: 13:52:52
Date: 17-8-2021
Slit width: 15 microns
Dwell time: 200 milliseconds
Start wavelength: 6300 Angstroms
End wavelength: 6400 Angstroms
Increment: 0.2 Angstroms


0200063000640000002
Begin scan:


06300.0,000772
06300.2,000826
06300.4,000807
06300.6,000823
06300.8,000880
06301.0,000795
06301.2,000811
06301.4,000845
06301.6,000745
06301.8,000763
06302.0,000805
06302.2,000808
06302.4,000843
06302.6,000954
06302.8,000862
06303.0,000684
06303.2,000809
06303.4,000820
06303.6,000759
06303.8,000808
06304.0,000763
06304.2,000783
06304.4,000815
06304.6,000759
06304.8,000753
06305.0,000753
06305.2,000774
06305.4,000860
06305.6,000817
06305.8,000810
06306.0,000856
06306.2,000718
06306.4,000759
06306.6,000872
06306.8,000861
06307.0,000772
06307.2,000818
06307.4,000744
06307.6,000692
06307.8,000769
06308.0,000736
06308.2,000752
06308.4,000749
06308.6,000768
06308.8,000756
06309.0,000813
06309.2,000865
06309.4,000806
06309.6,000867
06309.8,000822
06310.0,000811
06310.2,000914
06310.4,000864
06310.6,000864
06310.8,000772
06311.0,000879
06311.2,000857
06311.4,000804
06311.6,000826
06311.8,000962
06312.0,000978
06312.2,000920
06312.4,001030
06312.6,000943
06312.8,001000
06313.0,001055
06313.2,001010
06313.4,000987
06313.6,001006
06313.8,000915
06314.0,000907
06314.2,001002
06314.4,000918
06314.6,000982
06314.8,000983
06315.0,001010
06315.2,001064
06315.4,000950
06315.6,001005
06315.8,001004
06316.0,001024
06316.2,001003
06316.4,000936
06316.6,000970
06316.8,001151
06317.0,001127
06317.2,001320
06317.4,001336
06317.6,001201
06317.8,001065
06318.0,001187
06318.2,001159
06318.4,001193
06318.6,001380
06318.8,001083
06319.0,001308
06319.2,001392
06319.4,001181
06319.6,001025
06319.8,001045
06320.0,000981
06320.2,001105
06320.4,001168
06320.6,001081
06320.8,001055
06321.0,001094
06321.2,001322
06321.4,001496
06321.6,001224
06321.8,001226
06322.0,001311
06322.2,001135
06322.4,001226
06322.6,001166
06322.8,001214
06323.0,001803
06323.2,001917
06323.4,001448
06323.6,001203
06323.8,001164
06324.0,001086
06324.2,001302
06324.4,001253
06324.6,001658
06324.8,002307
06325.0,001760
06325.2,001292
06325.4,001400
06325.6,001422
06325.8,001207
06326.0,001341
06326.2,001297
06326.4,001287
06326.6,001610
06326.8,001448
06327.0,001489
06327.2,001657
06327.4,001429
06327.6,001456
06327.8,001612
06328.0,001401
06328.2,001559
06328.4,001463
06328.6,001334
06328.8,001684
06329.0,001634
06329.2,001567
06329.4,001803
06329.6,001599
06329.8,001403
06330.0,001860
06330.2,001552
06330.4,001431
06330.6,001507
06330.8,001667
06331.0,002788
06331.2,003401
06331.4,002436
06331.6,001646
06331.8,001679
06332.0,001475
06332.2,001805
06332.4,002042
06332.6,001770
06332.8,001929
06333.0,001757
06333.2,001960
06333.4,002697
06333.6,002578
06333.8,002089
06334.0,003105
06334.2,003116
06334.4,002225
06334.6,002079
06334.8,001856
06335.0,001965
06335.2,002429
06335.4,002102
06335.6,002339
06335.8,002852
06336.0,002377
06336.2,002988
06336.4,003570
06336.6,002155
06336.8,002496
06337.0,003454
06337.2,002504
06337.4,003000
06337.6,003641
06337.8,002863
06338.0,003318
06338.2,003021
06338.4,002610
06338.6,003899
06338.8,003038
06339.0,003170
06339.2,005363
06339.4,003890
06339.6,003745
06339.8,004661
06340.0,003340
06340.2,004773
06340.4,005718
06340.6,003721
06340.8,003845
06341.0,003493
06341.2,003636
06341.4,005921
06341.6,005176
06341.8,004443
06342.0,006633
06342.2,005505
06342.4,005787
06342.6,007705
06342.8,005054
06343.0,006458
06343.2,007296
06343.4,005993
06343.6,010024
06343.8,009394
06344.0,004693
06344.2,007077
06344.4,005007
06344.6,006824
06344.8,010804
06345.0,007681
06345.2,010099
06345.4,008184
06345.6,007881
06345.8,015069
06346.0,010839
06346.2,009533
06346.4,014866
06346.6,010930
06346.8,019991
06347.0,024968
06347.2,016542
06347.4,015157
06347.6,016177
06347.8,019359
06348.0,031290
06348.2,031450
06348.4,024514
06348.6,031370
06348.8,030058
06349.0,031056
06349.2,018870
06349.4,020669
06349.6,013820
06349.8,002795
06350.0,001607
06350.2,001642
06350.4,002340
06350.6,010118
06350.8,026810
06351.0,027057
06351.2,031806
06351.4,031794
06351.6,031349
06351.8,028168
06352.0,021831
06352.2,020725
06352.4,016232
06352.6,027694
06352.8,025155
06353.0,014044
06353.2,015980
06353.4,010415
06353.6,009476
06353.8,012226
06354.0,008746
06354.2,013286
06354.4,011081
06354.6,006427
06354.8,007652
06355.0,006008
06355.2,010163
06355.4,011966
06355.6,006440
06355.8,004436
06356.0,004845
06356.2,004924
06356.4,007663
06356.6,005431
06356.8,005646
06357.0,007990
06357.2,005393
06357.4,003620
06357.6,004412
06357.8,003342
06358.0,004623
06358.2,005216
06358.4,003057
06358.6,003858
06358.8,004373
06359.0,003301
06359.2,003723
06359.4,003239
06359.6,002931
06359.8,003448
06360.0,002959
06360.2,002930
06360.4,003782
06360.6,003080
06360.8,002837
06361.0,003226
06361.2,002456
06361.4,003062
06361.6,003528
06361.8,002381
06362.0,002269
06362.2,002630
06362.4,002566
06362.6,003237
06362.8,002803
06363.0,002429
06363.2,003128
06363.4,002453
06363.6,001888
06363.8,002516
06364.0,002222
06364.2,002042
06364.4,002307
06364.6,002112
06364.8,002857
06365.0,002767
06365.2,001880
06365.4,002356
06365.6,002560
06365.8,001796
06366.0,001865
06366.2,001849
06366.4,002073
06366.6,002691
06366.8,002634
06367.0,002295
06367.2,002430
06367.4,001799
06367.6,001652
06367.8,001904
06368.0,001657
06368.2,001395
06368.4,001504
06368.6,001703
06368.8,002489
06369.0,002367
06369.2,001847
06369.4,001690
06369.6,001604
06369.8,001281
06370.0,001246
06370.2,001319
06370.4,001537
06370.6,001681
06370.8,001528
06371.0,001267
06371.2,001419
06371.4,001518
06371.6,001437
06371.8,001547
06372.0,001462
06372.2,001132
06372.4,001370
06372.6,001408
06372.8,001492
06373.0,001706
06373.2,001332
06373.4,001338
06373.6,001348
06373.8,001237
06374.0,001379
06374.2,001219
06374.4,001064
06374.6,001356
06374.8,001286
06375.0,001369
06375.2,001604
06375.4,001514
06375.6,001280
06375.8,001316
06376.0,001257
06376.2,001251
06376.4,001222
06376.6,001189
06376.8,001446
06377.0,001391
06377.2,001294
06377.4,001369
06377.6,001280
06377.8,001213
06378.0,001257
06378.2,001288
06378.4,001213
06378.6,001250
06378.8,001062
06379.0,001108
06379.2,001125
06379.4,001126
06379.6,001243
06379.8,001204
06380.0,000993
06380.2,001123
06380.4,001146
06380.6,001022
06380.8,001143
06381.0,001172
06381.2,001115
06381.4,001046
06381.6,001126
06381.8,001179
06382.0,001124
06382.2,001083
06382.4,001058
06382.6,001099
06382.8,001071
06383.0,001092
06383.2,001062
06383.4,001002
06383.6,000885
06383.8,000898
06384.0,000919
06384.2,001022
06384.4,001017
06384.6,000845
06384.8,000852
06385.0,000920
06385.2,000880
06385.4,000896
06385.6,000809
06385.8,000896
06386.0,000801
06386.2,000796
06386.4,000892
06386.6,001050
06386.8,000929
06387.0,000891
06387.2,001043
06387.4,000985
06387.6,000952
06387.8,000975
06388.0,000850
06388.2,000978
06388.4,000902
06388.6,000755
06388.8,000787
06389.0,000754
06389.2,000731
06389.4,000781
06389.6,000856
06389.8,000958
06390.0,001035
06390.2,000906
06390.4,000811
06390.6,000776
06390.8,000764
06391.0,000710
06391.2,000668
06391.4,000708
06391.6,000704
06391.8,000703
06392.0,000684
06392.2,000760
06392.4,000765
06392.6,000675
06392.8,000672
06393.0,000706
06393.2,000716
06393.4,000705
06393.6,000716
06393.8,000669
06394.0,000700
06394.2,000658
06394.4,000750
06394.6,000745
06394.8,000696
06395.0,000862
06395.2,000805
06395.4,000713
06395.6,000731
06395.8,000671
06396.0,000646
06396.2,000613
06396.4,000650
06396.6,000637
06396.8,000729
06397.0,000745
06397.2,000684
06397.4,000728
06397.6,000787
06397.8,000821
06398.0,000832
06398.2,000790
06398.4,000699
06398.6,000768
06398.8,000820
06399.0,000693
06399.2,000691
06399.4,000755
06399.6,000615
06399.8,000640
06400.0,000701